time (s)	energy (uJ)	charge (mC)	voltage (mV)	crossing#mod 255
7372.493692	89.655655	0.019663	4.559725	31
7373.547812	81.637054	0.019665	4.151287	32
7374.579019	96.245667	0.019675	4.891795	33
7375.623541	86.898888	0.019700	4.411165	34
7376.660196	96.970428	0.019677	4.927997	35
7377.702809	95.967186	0.019663	4.880650	36
7378.742266	102.732513	0.019656	5.226433	37
7379.779209	102.004723	0.019696	5.178855	38
7380.827348	104.938194	0.019706	5.325286	39
7381.858749	106.218903	0.019651	5.405262	40
7382.904087	113.694138	0.019687	5.774991	41
7383.939504	110.917534	0.019664	5.640680	42
7384.981689	115.025848	0.019670	5.847738	43
7386.022977	120.259056	0.019676	6.112043	44
7387.058819	124.142548	0.019661	6.314156	45
7388.104224	119.366356	0.019676	6.066611	46
7389.135835	135.796463	0.019690	6.896647	47
7390.186114	123.818192	0.019678	6.292304	48
7391.212236	138.802155	0.019697	7.046920	49
7392.267105	127.270645	0.019670	6.470414	50
7393.290058	144.683884	0.019686	7.349693	51
7394.349108	133.132416	0.019689	6.761671	52
7395.368181	147.968506	0.019672	7.521788	53
7396.430121	137.241592	0.019668	6.977923	54
7397.447115	155.973892	0.019682	7.924629	55
7398.509607	141.267136	0.019646	7.190693	56
7399.526765	159.705017	0.019674	8.117623	57
7400.588152	145.038376	0.019645	7.382963	58
7401.606494	165.679398	0.019675	8.420976	59
7402.668265	149.287872	0.019665	7.591582	60
7403.685310	168.150803	0.019652	8.556334	61
7404.748831	152.248795	0.019664	7.742542	62
7405.766561	172.847687	0.019655	8.794028	63
7406.826219	159.580734	0.019655	8.118965	64
7407.844819	176.572235	0.019673	8.975563	65
7408.904967	160.473022	0.019615	8.180948	66
7409.926829	180.096558	0.019721	9.132036	67
7410.982554	167.647537	0.019655	8.529659	68
7412.006143	180.064087	0.019670	9.154480	69
7413.061534	168.388367	0.019680	8.556174	70
7414.087867	181.233078	0.019680	9.209194	71
7415.139473	172.866043	0.019654	8.795482	72
7416.170634	178.899979	0.019657	9.101041	73
7417.215305	170.833374	0.019650	8.693984	74
7418.250256	181.910233	0.019673	9.246559	75
7419.290987	177.728424	0.019626	9.055686	76
7420.333146	174.541626	0.019672	8.872499	77
7421.369862	180.305283	0.019682	9.160861	78
7422.415025	171.981186	0.019674	8.741673	79
7423.445793	179.002441	0.019652	9.108702	80
7424.492766	175.970016	0.019677	8.942824	81
7425.524935	179.434875	0.019651	9.130991	82
7426.569171	179.092087	0.019661	9.109070	83
7427.605243	172.819489	0.019647	8.796294	84
7428.647450	174.490784	0.019652	8.878974	85
7429.682592	177.862305	0.019647	9.052803	86
7430.722932	178.545563	0.019645	9.088408	87
7431.763066	171.524292	0.019645	8.731146	88
7432.803107	172.633240	0.019675	8.774035	89
7433.842400	172.070923	0.019652	8.755721	90
7434.878412	168.490112	0.019673	8.564675	91
7435.923149	171.069244	0.019720	8.675056	92
7436.954590	173.671844	0.019644	8.841150	93
7438.001506	165.533386	0.019617	8.438398	94
7439.032612	172.332138	0.019654	8.768174	95
7440.079472	164.887817	0.019661	8.386715	96
7441.109306	171.211685	0.019626	8.723667	97
7442.158021	161.899582	0.019629	8.247851	98
7443.186917	168.764633	0.019643	8.591538	99
7444.235605	161.491425	0.019655	8.216142	100
7445.265961	166.963272	0.019678	8.484645	101
7446.312934	159.609894	0.019646	8.124213	102
7447.343076	165.529480	0.019649	8.424143	103
7448.390224	155.919266	0.019626	7.944516	104
7449.422121	161.599945	0.019634	8.230594	105
7450.466537	155.515564	0.019659	7.910490	106
7451.500804	162.055008	0.019616	8.261405	107
7452.543686	152.874100	0.019601	7.799326	108
7453.579368	159.450821	0.019631	8.122444	109
7454.619237	154.506729	0.019645	7.864954	110
7455.659151	151.300598	0.019672	7.691324	111
7456.695523	152.059799	0.019645	7.740186	112
7457.737209	142.701721	0.019650	7.262260	113
7458.772078	155.390060	0.019654	7.906462	114
7459.815801	138.654892	0.019648	7.057073	115
7460.847779	155.428665	0.019667	7.903177	116
7461.894949	137.365997	0.019673	6.982537	117
7462.926650	149.500732	0.019653	7.607107	118
7463.970894	137.235428	0.019625	6.992921	119
7465.006457	149.048737	0.019656	7.582825	120
7466.047512	136.862183	0.019622	6.974935	121
7467.085764	140.553040	0.019652	7.152217	122
7468.122662	134.062805	0.019675	6.813872	123
7469.164438	139.446350	0.019651	7.096027	124
7470.198401	134.086472	0.019643	6.826064	125
7471.242371	137.524475	0.019645	7.000574	126
7472.274076	131.301132	0.019650	6.682007	127
7473.322239	134.100479	0.019675	6.815609	128
7474.351103	131.940628	0.019650	6.714421	129
7475.398933	139.043854	0.019673	7.067695	130
7476.427554	129.660492	0.019651	6.598279	131
7477.477228	134.121841	0.019624	6.834427	132
7478.505074	124.980202	0.019645	6.361974	133
7479.555425	125.407692	0.019641	6.384885	134
7480.582131	124.193306	0.019646	6.321445	135
7481.632045	126.290779	0.019656	6.425161	136
7482.659404	122.347160	0.019667	6.221084	137
7483.708927	123.394623	0.019669	6.273579	138
7484.736266	118.865356	0.019637	6.053218	139
7485.786110	121.229530	0.019642	6.172042	140
7486.813434	120.845375	0.019665	6.145344	141
7487.863790	121.319801	0.019681	6.164181	142
7488.890565	118.433273	0.019668	6.021742	143
7489.939315	118.988480	0.019626	6.062848	144
7490.968910	116.413025	0.019639	5.927704	145
7492.013293	130.197601	0.019653	6.624761	146
7493.045317	117.443748	0.019676	5.968757	147
7494.091152	118.771194	0.019664	6.039915	148
7495.124228	110.099762	0.019671	5.597075	149
7496.166424	119.809357	0.019632	6.102748	150
7497.202940	108.491928	0.019656	5.519461	151
7498.242539	115.887833	0.019675	5.890104	152
7499.281159	109.324554	0.019636	5.567687	153
7500.318200	110.295410	0.019676	5.605641	154
7501.360359	103.043053	0.019676	5.236954	155
7502.394182	114.616692	0.019665	5.828474	156
7503.437837	103.083626	0.019675	5.239243	157
7504.470751	111.746056	0.019659	5.684175	158
7505.515309	103.300743	0.019650	5.257019	159
7506.548265	109.233269	0.019671	5.553085	160
7507.590628	103.436913	0.019657	5.262171	161
7508.625494	107.311646	0.019645	5.462611	162
7509.668274	100.848854	0.019645	5.133594	163
7510.704485	103.590309	0.019638	5.275048	164
7511.743584	102.877357	0.019630	5.240697	165
7512.780689	101.109482	0.019641	5.147780	166
7513.819506	141.393005	0.019669	7.188632	167
7514.858297	103.249474	0.019635	5.258354	168
7515.896375	98.465431	0.019671	5.005537	169
7516.903071	220.638992	0.019644	11.231736	170
7517.971536	93.440666	0.019598	4.767933	171
7519.013854	98.970222	0.019670	5.031407	172
7520.047934	104.201302	0.019646	5.303983	173
7521.091151	98.978424	0.019645	5.038277	174
7522.125608	96.589714	0.019672	4.910058	175
7523.169398	95.118538	0.019678	4.833871	176
7524.202619	96.849960	0.019664	4.925298	177
7525.245012	98.025383	0.019667	4.984359	178
7526.280272	80.461876	0.019633	4.098225	179
7527.321123	102.030815	0.019666	5.188251	180
7528.355161	102.603813	0.019650	5.221679	181
7529.396923	95.504646	0.019659	4.857963	182
7530.433246	96.179199	0.019644	4.896138	183
7531.472714	96.951019	0.019640	4.936286	184
7532.511577	92.683220	0.019641	4.718785	185
7533.549475	94.135399	0.019665	4.786912	186
7534.589402	90.179726	0.019654	4.588380	187
7535.625275	95.798599	0.019642	4.877245	188
7536.666170	92.299995	0.019647	4.697815	189
7537.701848	96.431854	0.019642	4.909520	190
7538.743637	89.284676	0.019639	4.546210	191
7539.778434	83.167084	0.019643	4.233959	192
7540.820603	91.523018	0.019643	4.659411	193
7541.857077	90.537476	0.019658	4.605707	194
7542.896606	86.991745	0.019639	4.429502	195
7543.933246	93.063812	0.019638	4.739069	196
7544.972660	87.260773	0.019640	4.443035	197
7546.010404	93.776520	0.019634	4.776125	198
7547.048755	86.976189	0.019643	4.427907	199
7548.088408	92.239243	0.019660	4.691645	200
7549.124659	89.282539	0.019631	4.547994	201
7550.166590	90.028893	0.019670	4.577070	202
7551.199961	85.923286	0.019675	4.367196	203
7552.244486	92.219994	0.019658	4.691213	204
7553.232348	268.349182	0.019643	13.661026	205
7554.322919	88.517143	0.019676	4.498814	206
7555.352820	83.355690	0.019636	4.245090	207
7556.399284	88.480476	0.019640	4.505165	208
7557.429422	86.725334	0.019638	4.416210	209
7558.476203	91.066307	0.019651	4.634107	210
7559.506243	81.069344	0.019635	4.128829	211
7560.553686	87.270782	0.019666	4.437547	212
7561.582313	81.447983	0.019635	4.148128	213
7562.630131	86.148903	0.019666	4.380506	214
7563.660156	81.681610	0.019603	4.166751	215
7564.707547	86.320976	0.019647	4.393660	216
7565.738475	77.445053	0.019651	3.940994	217
7566.783515	86.729797	0.019631	4.417931	218
7567.814798	76.853447	0.019661	3.908947	219
7568.860337	85.747810	0.019661	4.361306	220
7569.890560	79.459579	0.019638	4.046197	221
7570.936817	83.587318	0.019663	4.251020	222
7571.969070	75.586960	0.019670	3.842667	223
7573.011243	89.960915	0.019635	4.581615	224
7574.047040	75.298050	0.019636	3.834740	225
7575.088086	81.508553	0.019664	4.145033	226
7576.123838	64.043266	0.019675	3.255033	227
7577.164160	80.214905	0.019674	4.077219	228
